# Reference Number = 2408 Incident Particle: neutron  imodel=1 Target: Z= 92 A= 238 Ef = -5.480
# En(MeV) DWV/w        DWVsym/w       DW>/w         DW</w            w         DWS/wd           wd         DWvso/wso       wso
  0.001  16.28152      14.76738      2.030141     -.5159963     0.5719490E-01  1.583406      2.115827      29.19175     -.3633557E-02
  0.002  16.27856      14.76468      2.029774     -.5159027     0.5721568E-01  1.583092      2.116429      29.18643     -.3634882E-02
  0.003  16.27559      14.76199      2.029408     -.5158090     0.5723646E-01  1.582778      2.117031      29.18111     -.3636206E-02
  0.004  16.27263      14.75930      2.029042     -.5157154     0.5725725E-01  1.582464      2.117633      29.17578     -.3637531E-02
  0.005  16.26966      14.75661      2.028676     -.5156218     0.5727803E-01  1.582150      2.118236      29.17046     -.3638856E-02
  0.006  16.26670      14.75392      2.028311     -.5155283     0.5729883E-01  1.581837      2.118838      29.16515     -.3640182E-02
  0.007  16.26374      14.75123      2.027945     -.5154348     0.5731962E-01  1.581523      2.119440      29.15983     -.3641507E-02
  0.008  16.26078      14.74854      2.027579     -.5153413     0.5734042E-01  1.581210      2.120043      29.15452     -.3642833E-02
  0.009  16.25782      14.74586      2.027214     -.5152478     0.5736122E-01  1.580896      2.120645      29.14921     -.3644159E-02
  0.010  16.25486      14.74317      2.026849     -.5151544     0.5738203E-01  1.580583      2.121247      29.14390     -.3645486E-02
  0.020  16.22535      14.71636      2.023204     -.5142222     0.5759030E-01  1.577456      2.127272      29.09091     -.3658763E-02
  0.030  16.19593      14.68966      2.019572     -.5132934     0.5779894E-01  1.574339      2.133298      29.03811     -.3672064E-02
  0.040  16.16663      14.66304      2.015954     -.5123680     0.5800796E-01  1.571234      2.139325      28.98551     -.3685388E-02
  0.050  16.13743      14.63653      2.012349     -.5114459     0.5821735E-01  1.568139      2.145353      28.93309     -.3698737E-02
  0.060  16.10834      14.61011      2.008757     -.5105272     0.5842710E-01  1.565054      2.151383      28.88087     -.3712111E-02
  0.070  16.07935      14.58378      2.005177     -.5096118     0.5863723E-01  1.561980      2.157414      28.82883     -.3725508E-02
  0.080  16.05047      14.55755      2.001611     -.5086997     0.5884774E-01  1.558917      2.163446      28.77698     -.3738929E-02
  0.090  16.02169      14.53142      1.998058     -.5077909     0.5905861E-01  1.555864      2.169480      28.72531     -.3752374E-02
  0.100  15.99301      14.50538      1.994517     -.5068853     0.5926986E-01  1.552821      2.175514      28.67384     -.3765843E-02
  0.200  15.71179      14.25000      1.959801     -.4980062     0.6140276E-01  1.522950      2.235917      28.16901     -.3901858E-02
  0.300  15.44032      14.00346      1.926291     -.4894358     0.6357279E-01  1.494055      2.296404      27.68166     -.4040276E-02
  0.400  15.17808      13.76531      1.893928     -.4811584     0.6577992E-01  1.466087      2.356945      27.21088     -.4181097E-02
  0.500  14.92461      13.53512      1.862652     -.4731592     0.6802411E-01  1.439000      2.417515      26.75585     -.4324320E-02
  0.600  14.67949      13.31250      1.832411     -.4654246     0.7030531E-01  1.412750      2.478085      26.31579     -.4469945E-02
  0.700  14.44230      13.09709      1.803153     -.4579417     0.7262349E-01  1.387296      2.538630      25.88997     -.4617971E-02
  0.800  14.21267      12.88854      1.774833     -.4506984     0.7497861E-01  1.362602      2.599124      25.47771     -.4768398E-02
  0.900  13.99024      12.68652      1.747406     -.4436836     0.7737061E-01  1.338632      2.659543      25.07837     -.4921224E-02
  1.000  13.77469      12.49074      1.720831     -.4368866     0.7979946E-01  1.315352      2.719864      24.69136     -.5076448E-02
  1.100  13.56568      12.30091      1.695069     -.4302974     0.8226512E-01  1.292731      2.780063      24.31611     -.5234071E-02
  1.200  13.36294      12.11677      1.670083     -.4239069     0.8476753E-01  1.270740      2.840118      23.95210     -.5394092E-02
  1.300  13.16619      11.93805      1.645840     -.4177061     0.8730666E-01  1.249352      2.900007      23.59882     -.5556509E-02
  1.400  12.97515      11.76453      1.622306     -.4116868     0.8988246E-01  1.228539      2.959710      23.25581     -.5721321E-02
  1.500  12.78960      11.59599      1.599451     -.4058412     0.9249489E-01  1.208278      3.019207      22.92264     -.5888529E-02
  1.600  12.60929      11.43220      1.577247     -.4001619     0.9514389E-01  1.188546      3.078478      22.59887     -.6058132E-02
  1.700  12.43400      11.27298      1.555665     -.3946420     0.9782942E-01  1.169320      3.137506      22.28412     -.6230128E-02
  1.800  12.26354      11.11813      1.534682     -.3892750     0.1005514      1.150580      3.196272      21.97802     -.6404516E-02
  1.900  12.09770      10.96748      1.514272     -.3840545     0.1033099      1.132306      3.254760      21.68022     -.6581297E-02
  2.000  11.93629      10.82086      1.494412     -.3789748     0.1061047      1.114480      3.312952      21.39037     -.6760469E-02
  2.100  11.77915      10.67810      1.475080     -.3740302     0.1089359      1.097084      3.370834      21.10818     -.6942031E-02
  2.200  11.62610      10.53906      1.456256     -.3692155     0.1118033      1.080102      3.428390      20.83333     -.7125982E-02
  2.300  11.47699      10.40360      1.437921     -.3645257     0.1147070      1.063517      3.485606      20.56555     -.7312322E-02
  2.400  11.33167      10.27157      1.420055     -.3599560     0.1176468      1.047316      3.542469      20.30457     -.7501049E-02
  2.500  11.19000      10.14286      1.402642     -.3555019     0.1206228      1.031483      3.598966      20.05013     -.7692164E-02
  2.600  11.05183      10.01733      1.385663     -.3511591     0.1236348      1.016005      3.655084      19.80198     -.7885664E-02
  2.700  10.91705      9.894866      1.369104     -.3469235     0.1266829      1.000869      3.710812      19.55990     -.8081549E-02
  2.800  10.78552      9.775363      1.352949     -.3427912     0.1297669     0.9860631      3.766139      19.32367     -.8279819E-02
  2.900  10.65714      9.658712      1.337184     -.3387586     0.1328869     0.9715754      3.821054      19.09308     -.8480472E-02
  3.000  10.53178      9.544812      1.321795     -.3348221     0.1360427     0.9573948      3.875547      18.86793     -.8683507E-02
  3.100  10.40936      9.433567      1.306768     -.3309784     0.1392343     0.9435106      3.929610      18.64802     -.8888923E-02
  3.200  10.28975      9.324886      1.292091     -.3272242     0.1424617     0.9299128      3.983233      18.43318     -.9096720E-02
  3.300  10.17288      9.218680      1.277753     -.3235564     0.1457247     0.9165918      4.036408      18.22324     -.9306896E-02
  3.400  10.05863      9.114866      1.263741     -.3199723     0.1490234     0.9035381      4.089128      18.01802     -.9519450E-02
  3.500  9.946940      9.013364      1.250045     -.3164689     0.1523576     0.8907431      4.141385      17.81737     -.9734382E-02
  3.600  9.837709      8.914098      1.236655     -.3130436     0.1557273     0.8781983      4.193173      17.62115     -.9951691E-02
  3.700  9.730861      8.816995      1.223560     -.3096939     0.1591325     0.8658957      4.244486      17.42920     -.1017137E-01
  3.800  9.626318      8.721984      1.210751     -.3064173     0.1625731     0.8538274      4.295317      17.24138     -.1039343E-01
  3.900  9.524006      8.628999      1.198218     -.3032114     0.1660491     0.8419862      4.345663      17.05757     -.1061786E-01
  4.000  9.423856      8.537976      1.185954     -.3000741     0.1695602     0.8303649      4.395518      16.87764     -.1084467E-01
  4.200  9.229771      8.361572      1.162196     -.2939965     0.1766882     0.8077551      4.493737      16.52893     -.1130539E-01
  4.400  9.043555      8.192309      1.139414     -.2881685     0.1839565     0.7859471      4.589946      16.19433     -.1177559E-01
  4.600  8.864738      8.029764      1.117550     -.2825751     0.1913646     0.7648938      4.684121      15.87302     -.1225525E-01
  4.800  8.692889      7.873543      1.096549     -.2772026     0.1989120     0.7445519      4.776244      15.56421     -.1274438E-01
  5.000  8.527609      7.723284      1.076363     -.2720384     0.2065982     0.7248811      4.866302      15.26718     -.1324295E-01
  5.200  8.368529      7.578654      1.056946     -.2670708     0.2144227     0.7058445      4.954288      14.98128     -.1375097E-01
  5.400  8.215307      7.439340      1.038255     -.2622889     0.2223848     0.6874076      5.040199      14.70589     -.1426842E-01
  5.600  8.067625      7.305056      1.020252     -.2576828     0.2304841     0.6695384      5.124037      14.44044     -.1479528E-01
  5.800  7.925190      7.175534      1.002899     -.2532429     0.2387199     0.6522073      5.205806      14.18440     -.1533156E-01
  6.000  7.787726      7.050525     0.9861624     -.2489607     0.2470918     0.6353866      5.285516      13.93729     -.1587725E-01
  6.200  7.654979      6.929797     0.9700108     -.2448281     0.2555991     0.6190506      5.363177      13.69863     -.1643232E-01
  6.400  7.526711      6.813133     0.9544145     -.2408374     0.2642413     0.6031753      5.438805      13.46802     -.1699678E-01
  6.600  7.402698      6.700333     0.9393460     -.2369817     0.2730177     0.5877381      5.512418      13.24504     -.1757061E-01
  6.800  7.282733      6.591207     0.9247794     -.2332543     0.2819277     0.5727182      5.584035      13.02932     -.1815380E-01
  7.000  7.166621      6.485579     0.9106908     -.2296491     0.2909708     0.5580957      5.653677      12.82052     -.1874633E-01
  7.200  7.054180      6.383283     0.8970573     -.2261603     0.3001463     0.5438524      5.721369      12.61830     -.1934821E-01
  7.400  6.945239      6.284164     0.8838579     -.2227824     0.3094537     0.5299709      5.787136      12.42236     -.1995942E-01
  7.600  6.839638      6.188076     0.8710726     -.2195104     0.3188922     0.5164349      5.851004      12.23242     -.2057994E-01
  7.800  6.737225      6.094882     0.8586827     -.2163395     0.3284612     0.5032291      5.913002      12.04820     -.2120977E-01
  8.000  6.637859      6.004453     0.8466707     -.2132652     0.3381601     0.4903392      5.973160      11.86944     -.2184889E-01
  8.200  6.541405      5.916669     0.8350198     -.2102833     0.3479882     0.4777516      6.031506      11.69591     -.2249730E-01
  8.400  6.447739      5.831414     0.8237146     -.2073897     0.3579449     0.4654536      6.088072      11.52738     -.2315497E-01
  8.600  6.356741      5.748582     0.8127404     -.2045807     0.3680294     0.4534330      6.142889      11.36364     -.2382191E-01
  8.800  6.268300      5.668069     0.8020831     -.2018527     0.3782412     0.4416786      6.195990      11.20449     -.2449808E-01
  9.000  6.182309      5.589781     0.7917297     -.1992024     0.3885795     0.4301794      6.247406      11.04973     -.2518350E-01
  9.200  6.098667      5.513626     0.7816678     -.1966266     0.3990436     0.4189254      6.297171      10.89919     -.2587813E-01
  9.400  6.017282      5.439518     0.7718856     -.1941223     0.4096329     0.4079069      6.345317      10.75269     -.2658197E-01
  9.600  5.938061      5.367376     0.7623719     -.1916867     0.4203467     0.3971147      6.391877      10.61008     -.2729501E-01
  9.800  5.860922      5.297123     0.7531163     -.1893170     0.4311842     0.3865401      6.436884      10.47121     -.2801723E-01
 10.000  5.785782      5.228684     0.7441087     -.1870107     0.4421447     0.3761751      6.480371      10.33592     -.2874862E-01
 10.500  5.606191      5.065083     0.7226137     -.1815066     0.4700794     0.3511284      6.582654      10.01252     -.3061712E-01
 11.000  5.437536      4.911410     0.7024752     -.1763493     0.4987671     0.3272311      6.676147      9.708742     -.3254263E-01
 11.500  5.278852      4.766786     0.6835733     -.1715079     0.5281961     0.3043844      6.761347      9.422854     -.3452493E-01
 12.000  5.129283      4.630437     0.6658019     -.1669555     0.5583544     0.2825003      6.838732      9.153322     -.3656381E-01
 12.500  4.988069      4.501670     0.6490667     -.1626678     0.5892302     0.2615010      6.908765      8.898780     -.3865902E-01
 13.000  4.854532      4.379872     0.6332837     -.1586234     0.6208110     0.2413165      6.971890      8.658012     -.4081033E-01
 13.500  4.728065      4.264490     0.6183776     -.1548031     0.6530845     0.2218842      7.028528      8.429929     -.4301749E-01
 14.000  4.608124      4.155032     0.6042809     -.1511895     0.6860381     0.2031480      7.079081      8.213555     -.4528027E-01
 14.500  4.494218      4.051052     0.5909329     -.1477671     0.7196589     0.1850572      7.123931      8.008011     -.4759840E-01
 15.000  4.385907      3.952150     0.5782788     -.1445219     0.7539342     0.1675658      7.163438      7.812503     -.4997163E-01
 15.500  4.282789      3.857961     0.5662689     -.1414413     0.7888508     0.1506324      7.197940      7.626313     -.5239969E-01
 16.000  4.184502      3.768158     0.5548583     -.1385138     0.8243957     0.1342190      7.227758      7.448792     -.5488231E-01
 16.500  4.090717      3.682440     0.5440062     -.1357288     0.8605554     0.1182915      7.253193      7.279347     -.5741921E-01
 17.000  4.001133      3.600535     0.5336752     -.1330768     0.8973168     0.1028182      7.274527      7.117440     -.6001012E-01
